wavelength_nm,n,k
300,1.821500,0.061733
301,1.836400,0.055770
302,1.827100,0.060060
303,1.832500,0.056844
304,1.810800,0.059329
305,1.798400,0.061546
306,1.814800,0.054273
307,1.773700,0.066384
308,1.800000,0.061050
309,1.799600,0.058243
310,1.802300,0.050191
311,1.794900,0.067273
312,1.787800,0.047169
313,1.775300,0.051877
314,1.774800,0.052315
315,1.764100,0.065340
316,1.775800,0.065255
317,1.761700,0.071613
318,1.759300,0.062749
319,1.758600,0.081930
320,1.745500,0.078049
321,1.758300,0.067725
322,1.760400,0.067432
323,1.751100,0.082067
324,1.769500,0.082473
325,1.726700,0.096776
326,1.766200,0.086967
327,1.745500,0.093248
328,1.779200,0.097980
329,1.766400,0.104570
330,1.741800,0.096744
331,1.738700,0.098184
332,1.737500,0.091864
333,1.749500,0.118960
334,1.742300,0.106920
335,1.737300,0.065716
336,1.735700,0.124000
337,1.744300,0.111540
338,1.754700,0.118460
339,1.750800,0.120180
340,1.723300,0.117930
341,1.740100,0.120890
342,1.745900,0.112190
343,1.745600,0.118470
344,1.747000,0.111730
345,1.746900,0.117510
346,1.743300,0.114330
347,1.748000,0.115000
348,1.744300,0.117840
349,1.748300,0.116540
350,1.748500,0.118830
351,1.741800,0.119170
352,1.750700,0.122410
353,1.757800,0.119350
354,1.759800,0.120200
355,1.763200,0.120460
356,1.766500,0.125250
357,1.776000,0.122970
358,1.777300,0.122670
359,1.769800,0.118240
360,1.774200,0.121330
361,1.766400,0.124920
362,1.772500,0.121780
363,1.789800,0.123210
364,1.784200,0.121650
365,1.819200,0.131730
366,1.765800,0.118890
367,1.774900,0.111950
368,1.773400,0.116520
369,1.790800,0.112470
370,1.778900,0.112190
371,1.773400,0.107880
372,1.792700,0.108100
373,1.784600,0.105320
374,1.793000,0.107730
375,1.793300,0.103530
376,1.793200,0.099450
377,1.802200,0.096601
378,1.807000,0.093365
379,1.790700,0.094673
380,1.786200,0.098127
381,1.794500,0.089302
382,1.805700,0.086463
383,1.805100,0.083897
384,1.798600,0.084159
385,1.809000,0.079022
386,1.805800,0.077088
387,1.801900,0.073759
388,1.808200,0.069518
389,1.809500,0.066018
390,1.807400,0.062601
391,1.809700,0.059590
392,1.806700,0.057495
393,1.805000,0.055496
394,1.806900,0.052364
395,1.805900,0.047525
396,1.802600,0.045312
397,1.798800,0.043630
398,1.802300,0.041082
399,1.801800,0.037004
400,1.800300,0.033529
401,1.791400,0.032820
402,1.790300,0.028905
403,1.789000,0.026199
404,1.787400,0.023232
405,1.786400,0.020674
406,1.782800,0.017493
407,1.774000,0.019354
408,1.776700,0.014703
409,1.773400,0.011666
410,1.768400,0.011318
411,1.766200,0.012681
412,1.762500,0.013834
413,1.762100,0.011077
414,1.760600,0.012731
415,1.758500,0.010136
416,1.758100,0.004884
417,1.757400,0.004245
418,1.758100,0.009750
419,1.761300,0.006530
420,1.760900,0.000000
421,1.770800,0.003582
422,1.735000,0.029189
423,1.722600,0.006007
424,1.721600,0.012175
425,1.723800,0.009262
426,1.729100,0.001933
427,1.727900,0.003322
428,1.722800,0.007731
429,1.721600,0.006908
430,1.725300,0.000928
431,1.721200,0.004494
432,1.722500,0.000000
433,1.719100,0.000000
434,1.716300,0.000000
435,1.704900,0.000000
436,1.711700,0.000167
437,1.710200,0.004874
438,1.710100,0.004027
439,1.704900,0.001797
440,1.706800,0.005916
441,1.707300,0.000457
442,1.705300,0.002751
443,1.707700,0.000317
444,1.707100,0.000658
445,1.705900,0.000794
446,1.704000,0.000000
447,1.701000,0.001916
448,1.699500,0.003007
449,1.699900,0.000000
450,1.698800,0.000927
451,1.698300,0.001904
452,1.699300,0.011950
453,1.698100,0.000000
454,1.696500,0.005644
455,1.695800,0.000727
456,1.691700,0.002138
457,1.694000,0.009321
458,1.688500,0.004551
459,1.687900,0.007350
460,1.690600,0.010131
461,1.687000,0.009222
462,1.687300,0.008836
463,1.687000,0.010910
464,1.685600,0.011293
465,1.687500,0.013214
466,1.689900,0.013634
467,1.690800,0.013673
468,1.692700,0.014844
469,1.694900,0.014802
470,1.696200,0.015016
471,1.698500,0.014756
472,1.695800,0.013205
473,1.697400,0.012733
474,1.699000,0.014788
475,1.699000,0.014143
476,1.700200,0.012211
477,1.698600,0.012378
478,1.697100,0.011381
479,1.697100,0.011208
480,1.697200,0.009565
481,1.698300,0.010562
482,1.698900,0.009630
483,1.700400,0.009517
484,1.700600,0.010078
485,1.700700,0.008598
486,1.700400,0.008151
487,1.699800,0.007556
488,1.697700,0.009693
489,1.696300,0.006521
490,1.696300,0.006348
491,1.696400,0.006022
492,1.696200,0.005829
493,1.697200,0.005633
494,1.697400,0.005269
495,1.697200,0.005163
496,1.696900,0.005729
497,1.695200,0.004879
498,1.695100,0.006382
499,1.694900,0.005717
500,1.694500,0.006731
501,1.693700,0.005811
502,1.693200,0.005079
503,1.692000,0.005073
504,1.692600,0.005270
505,1.692000,0.004807
506,1.691200,0.004314
507,1.691200,0.004108
508,1.690900,0.004355
509,1.690300,0.004159
510,1.690400,0.004692
511,1.689300,0.002609
512,1.688800,0.004276
513,1.688400,0.003789
514,1.687900,0.001877
515,1.688100,0.003491
516,1.687400,0.002825
517,1.687500,0.002428
518,1.687300,0.000917
519,1.686300,0.000395
520,1.686000,0.000000
521,1.684800,0.000949
522,1.683200,0.000000
523,1.681900,0.000000
524,1.680000,0.000144
525,1.679200,0.000000
526,1.678000,0.000000
527,1.676800,0.000000
528,1.675900,0.000000
529,1.676300,0.000000
530,1.676500,0.000000
531,1.675300,0.000180
532,1.675000,0.000617
533,1.674300,0.000169
534,1.675100,0.001624
535,1.674400,0.001239
536,1.674000,0.001066
537,1.674400,0.001695
538,1.673700,0.001216
539,1.673400,0.001003
540,1.673200,0.001610
541,1.672500,0.001105
542,1.672400,0.001326
543,1.672500,0.000601
544,1.671800,0.001200
545,1.671800,0.001172
546,1.671800,0.000713
547,1.671100,0.001031
548,1.671400,0.000711
549,1.670800,0.000861
550,1.670400,0.000780
551,1.670100,0.000972
552,1.669600,0.000934
553,1.669700,0.000911
554,1.669300,0.001275
555,1.669000,0.001047
556,1.669100,0.001375
557,1.669300,0.000954
558,1.668400,0.001161
559,1.668400,0.001161
560,1.667600,0.001010
561,1.667900,0.001151
562,1.667600,0.001112
563,1.667400,0.001059
564,1.667300,0.001021
565,1.666800,0.000881
566,1.666600,0.001020
567,1.665800,0.001334
568,1.665300,0.001126
569,1.665300,0.001148
570,1.665500,0.000990
571,1.664300,0.001186
572,1.664800,0.001206
573,1.664100,0.000965
574,1.664200,0.001204
575,1.663800,0.000990
576,1.663400,0.000963
577,1.663200,0.000655
578,1.663300,0.000869
579,1.662300,0.000834
580,1.662400,0.000749
581,1.661600,0.000831
582,1.661600,0.000786
583,1.661500,0.000947
584,1.661500,0.000557
585,1.661300,0.000383
586,1.661000,0.000337
587,1.660400,0.000294
588,1.660800,0.000457
589,1.660500,0.000485
590,1.660200,0.000232
591,1.660200,0.000184
592,1.659700,0.000462
593,1.659900,0.000399
594,1.659700,0.000289
595,1.659200,0.000096
596,1.659100,0.000001
597,1.659200,0.000254
598,1.658800,0.000233
599,1.658900,0.000107
600,1.658100,0.000119
601,1.657400,0.000206
602,1.657300,0.000000
603,1.656700,0.000052
604,1.657500,0.000000
605,1.656700,0.000000
606,1.656300,0.000000
607,1.656600,0.000000
608,1.656200,0.000000
609,1.656000,0.000000
610,1.655000,0.000000
611,1.654500,0.000000
612,1.654500,0.000000
613,1.654300,0.000000
614,1.654800,0.000000
615,1.653500,0.000000
616,1.653100,0.000000
617,1.653500,0.000000
618,1.653300,0.000000
619,1.652700,0.000000
620,1.652900,0.000000
621,1.652900,0.000000
622,1.652900,0.000000
623,1.652800,0.000000
624,1.652400,0.000000
625,1.652200,0.000000
626,1.651700,0.000000
627,1.651100,0.000000
628,1.651300,0.000000
629,1.650900,0.000000
630,1.650700,0.000000
631,1.650700,0.000000
632,1.650500,0.000000
633,1.650500,0.000000
634,1.651100,0.000000
635,1.650900,0.000000
636,1.650600,0.000000
637,1.650200,0.000000
638,1.650200,0.000000
639,1.650300,0.000000
640,1.649600,0.000000
641,1.650200,0.000000
642,1.649900,0.000000
643,1.649200,0.000000
644,1.648900,0.000000
645,1.648600,0.000000
646,1.648300,0.000000
647,1.648600,0.000000
648,1.648200,0.000000
649,1.649000,0.000000
650,1.649000,0.000000
651,1.649100,0.000000
652,1.649100,0.000000
653,1.648600,0.000000
654,1.648400,0.000000
655,1.648300,0.000000
656,1.647800,0.000000
657,1.648100,0.000000
658,1.647700,0.000120
659,1.647600,0.000175
660,1.647600,0.000267
661,1.647100,0.000445
662,1.647300,0.000506
663,1.647200,0.000565
664,1.646800,0.001137
665,1.647200,0.000883
666,1.646900,0.001031
667,1.646800,0.001070
668,1.647000,0.001131
669,1.646500,0.001588
670,1.647100,0.001329
671,1.646600,0.001455
672,1.646400,0.001808
673,1.646500,0.002135
674,1.646200,0.002098
675,1.646500,0.001978
676,1.646500,0.002246
677,1.646000,0.002426
678,1.646200,0.002262
679,1.645300,0.003034
680,1.644700,0.002913
681,1.644500,0.002997
682,1.644300,0.003178
683,1.644400,0.003017
684,1.644300,0.002993
685,1.644300,0.003106
686,1.644400,0.002858
687,1.644100,0.002906
688,1.644400,0.002681
689,1.645100,0.002399
690,1.645400,0.002356
691,1.646300,0.002309
692,1.646500,0.001983
693,1.646500,0.002218
694,1.646300,0.002331
695,1.645400,0.002712
696,1.645700,0.003008
697,1.645500,0.003147
698,1.646300,0.003771
699,1.645600,0.003237
700,1.646300,0.003482
701,1.646600,0.003817
702,1.647200,0.004840
703,1.645000,0.004138
704,1.646800,0.004974
705,1.646600,0.005644
706,1.645600,0.006559
707,1.642500,0.005119
708,1.643500,0.008274
709,1.642800,0.008377
710,1.642100,0.008368
711,1.642600,0.008074
712,1.642800,0.007367
713,1.642900,0.007222
714,1.642400,0.004083
715,1.643200,0.005749
716,1.642700,0.005446
717,1.642600,0.006945
718,1.641500,0.002609
719,1.641000,0.006554
720,1.641900,0.003793
721,1.639300,0.005991
722,1.639900,0.001631
723,1.639000,0.005537
724,1.639300,0.002890
725,1.638900,0.002402
726,1.638400,0.004683
727,1.638900,0.004026
728,1.639100,0.003510
729,1.639300,0.001994
730,1.639900,0.002838
731,1.640100,0.002482
732,1.640900,0.003851
733,1.641600,0.002733
734,1.641800,0.000297
735,1.643000,0.002521
736,1.642000,0.004938
737,1.641300,0.004668
738,1.640800,0.005665
739,1.642200,0.000000
740,1.642000,0.006058
741,1.645100,0.000000
742,1.644000,0.004141
743,1.645400,0.003055
744,1.644100,0.004646
745,1.647800,0.001522
746,1.649600,0.000000
747,1.637900,0.001739
748,1.615000,0.003857
749,1.633500,0.009102
750,1.636500,0.007704
751,1.622800,0.008209
752,1.625800,0.010181
753,1.634300,0.009595
754,1.632900,0.009742
755,1.636200,0.009946
756,1.629000,0.009241
757,1.631500,0.009986
758,1.630800,0.009273
759,1.635900,0.009723
760,1.633800,0.010305
761,1.631400,0.010857
762,1.632900,0.010314
763,1.635000,0.009238
764,1.636600,0.007865
765,1.638300,0.006682
766,1.641600,0.005545
767,1.641600,0.004900
768,1.639500,0.005656
769,1.638000,0.007992
770,1.637900,0.007577
771,1.638800,0.008572
772,1.637600,0.008909
773,1.638300,0.008067
774,1.638000,0.009108
775,1.637800,0.009085
776,1.638200,0.008821
777,1.637400,0.009110
778,1.639600,0.009732
779,1.638000,0.009473
780,1.637600,0.009650
781,1.638300,0.009660
782,1.642200,0.009640
783,1.639200,0.009268
784,1.644300,0.008380
785,1.643900,0.009426
786,1.640300,0.010343
787,1.639400,0.010976
788,1.641800,0.009248
789,1.642700,0.009058
790,1.644300,0.007418
791,1.644000,0.009291
792,1.644900,0.008537
793,1.645300,0.007994
794,1.646800,0.007273
795,1.647100,0.006725
796,1.648900,0.005623
797,1.649000,0.005178
798,1.648500,0.006143
799,1.647400,0.007618
